Temperature (K)	Pressure (MPa)	Density (l, kg/m3)	Volume (l, m3/kg)	Internal Energy (l, kJ/kg)	Enthalpy (l, kJ/kg)	Entropy (l, J/g*K)	Cv (l, J/g*K)	Cp (l, J/g*K)	Sound Spd. (l, m/s)	Joule-Thomson (l, K/MPa)	Viscosity (l, Pa*s)	Therm. Cond. (l, W/m*K)	Surf. Tension (l, N/m)	Density (v, kg/m3)	Volume (v, m3/kg)	Internal Energy (v, kJ/kg)	Enthalpy (v, kJ/kg)	Entropy (v, J/g*K)	Cv (v, J/g*K)	Cp (v, J/g*K)	Sound Spd. (v, m/s)	Joule-Thomson (v, K/MPa)	Viscosity (v, Pa*s)	Therm. Cond. (v, W/m*K)
14.000	0.0075414	76.969	0.012992	-53.720	-53.622	-3.0507	5.1625	7.0312	1268.3	-1.5728	2.5447e-05	0.097633	0.0030248	0.13272	7.5345	343.40	400.22	29.367	6.2449	10.570	307.56	29.101	6.4763e-07	0.010642
14.500	0.0099458	76.557	0.013062	-50.177	-50.047	-2.8020	5.1885	7.1701	1257.8	-1.5331	2.3918e-05	0.098442	0.0029367	0.16960	5.8963	346.16	404.80	28.567	6.2635	10.634	312.35	27.753	6.7520e-07	0.011117
15.000	0.012898	76.136	0.013134	-46.557	-46.388	-2.5566	5.2313	7.3386	1247.1	-1.4875	2.2552e-05	0.099195	0.0028487	0.21346	4.6847	348.86	409.28	27.821	6.2814	10.703	316.97	26.514	7.0265e-07	0.011600
15.500	0.016475	75.706	0.013209	-42.852	-42.634	-2.3135	5.2798	7.5245	1236.3	-1.4393	2.1320e-05	0.099893	0.0027608	0.26503	3.7731	351.49	413.65	27.124	6.2982	10.778	321.42	25.384	7.2999e-07	0.012089
16.000	0.020755	75.264	0.013287	-39.052	-38.777	-2.0722	5.3287	7.7212	1225.5	-1.3901	2.0202e-05	0.10053	0.0026730	0.32506	3.0763	354.07	417.91	26.471	6.3139	10.860	325.71	24.358	7.5726e-07	0.012588
16.500	0.025821	74.810	0.013367	-35.156	-34.811	-1.8323	5.3754	7.9257	1214.5	-1.3407	1.9181e-05	0.10112	0.0025853	0.39431	2.5361	356.56	422.05	25.856	6.3287	10.950	329.84	23.425	7.8447e-07	0.013095
17.000	0.031759	74.345	0.013451	-31.160	-30.733	-1.5936	5.4192	8.1368	1203.4	-1.2913	1.8244e-05	0.10165	0.0024977	0.47356	2.1117	358.98	426.04	25.276	6.3427	11.047	333.81	22.575	8.1165e-07	0.013613
17.500	0.038656	73.866	0.013538	-27.062	-26.539	-1.3558	5.4602	8.3545	1191.9	-1.2420	1.7381e-05	0.10212	0.0024102	0.56360	1.7743	361.31	429.90	24.726	6.3564	11.155	337.63	21.796	8.3883e-07	0.014142
18.000	0.046602	73.375	0.013629	-22.859	-22.224	-1.1188	5.4986	8.5793	1180.2	-1.1926	1.6583e-05	0.10253	0.0023229	0.66527	1.5032	363.54	433.59	24.204	6.3701	11.274	341.28	21.079	8.6603e-07	0.014684
18.500	0.055688	72.869	0.013723	-18.548	-17.784	-0.88236	5.5350	8.8120	1168.1	-1.1431	1.5843e-05	0.10289	0.0022358	0.77942	1.2830	365.68	437.13	23.707	6.3844	11.405	344.78	20.415	8.9330e-07	0.015239
19.000	0.066006	72.350	0.013822	-14.127	-13.215	-0.64625	5.5700	9.0539	1155.5	-1.0933	1.5154e-05	0.10319	0.0021488	0.90693	1.1026	367.71	440.49	23.233	6.3996	11.551	348.12	19.795	9.2065e-07	0.015808
19.500	0.077651	71.815	0.013925	-9.5923	-8.5111	-0.41030	5.6038	9.3060	1142.6	-1.0429	1.4511e-05	0.10343	0.0020620	1.0488	0.95352	369.62	443.66	22.778	6.4161	11.712	351.29	19.214	9.4813e-07	0.016393
20.000	0.090717	71.265	0.014032	-4.9402	-3.6673	-0.17429	5.6369	9.5697	1129.1	-0.99178	1.3910e-05	0.10361	0.0019754	1.2059	0.82929	371.41	446.64	22.341	6.4343	11.892	354.31	18.666	9.7579e-07	0.016996
20.500	0.10530	70.698	0.014145	-0.16660	1.3228	0.061986	5.6694	9.8463	1115.2	-0.93979	1.3346e-05	0.10374	0.0018890	1.3793	0.72501	373.07	449.42	21.920	6.4544	12.091	357.15	18.146	1.0037e-06	0.017616
21.000	0.12150	70.115	0.014262	4.7331	6.4659	0.29876	5.7015	10.138	1100.8	-0.88670	1.2815e-05	0.10381	0.0018029	1.5701	0.63688	374.60	451.98	21.514	6.4768	12.312	359.84	17.650	1.0318e-06	0.018256
21.500	0.13941	69.513	0.014386	9.7638	11.769	0.53625	5.7333	10.445	1085.8	-0.83231	1.2315e-05	0.10382	0.0017170	1.7796	0.56191	375.99	454.32	21.120	6.5017	12.557	362.35	17.177	1.0602e-06	0.018918
22.000	0.15913	68.893	0.014515	14.931	17.241	0.77471	5.7649	10.771	1070.3	-0.77637	1.1843e-05	0.10378	0.0016314	2.0090	0.49775	377.22	456.43	20.738	6.5292	12.830	364.70	16.723	1.0891e-06	0.019602
22.500	0.18075	68.253	0.014651	20.241	22.889	1.0144	5.7963	11.119	1054.2	-0.71861	1.1396e-05	0.10367	0.0015462	2.2598	0.44252	378.30	458.28	20.365	6.5594	13.133	366.87	16.286	1.1184e-06	0.020311
23.000	0.20438	67.592	0.014795	25.700	28.724	1.2556	5.8276	11.490	1037.5	-0.65873	1.0971e-05	0.10351	0.0014612	2.5334	0.39473	379.21	459.88	20.002	6.5927	13.472	368.88	15.864	1.1482e-06	0.021048
23.500	0.23012	66.908	0.014946	31.317	34.756	1.4986	5.8587	11.888	1020.2	-0.59639	1.0567e-05	0.10329	0.0013767	2.8315	0.35316	379.93	461.21	19.645	6.6290	13.850	370.72	15.456	1.1786e-06	0.021814
24.000	0.25807	66.199	0.015106	37.099	40.997	1.7436	5.8898	12.319	1002.2	-0.53118	1.0181e-05	0.10300	0.0012926	3.1562	0.31684	380.47	462.24	19.295	6.6685	14.273	372.38	15.061	1.2097e-06	0.022613
24.500	0.28833	65.465	0.015275	43.056	47.460	1.9912	5.9209	12.786	983.58	-0.46263	9.8120e-06	0.10269	0.0012089	3.5095	0.28494	380.81	462.97	18.951	6.7114	14.750	373.87	14.676	1.2417e-06	0.023448
25.000	0.32100	64.701	0.015456	49.200	54.161	2.2417	5.9521	13.298	964.22	-0.39020	9.4577e-06	0.10233	0.0011258	3.8938	0.25682	380.93	463.37	18.610	6.7578	15.289	375.20	14.302	1.2746e-06	0.024324
25.500	0.35618	63.907	0.015648	55.543	61.116	2.4954	5.9836	13.861	944.08	-0.31323	9.1166e-06	0.10191	0.0010432	4.3120	0.23191	380.82	463.42	18.272	6.8079	15.902	376.35	13.936	1.3087e-06	0.025247
26.000	0.39398	63.079	0.015853	62.100	68.346	2.7531	6.0155	14.487	923.11	-0.23094	8.7872e-06	0.10142	0.00096134	4.7674	0.20976	380.45	463.10	17.936	6.8620	16.603	377.33	13.577	1.3441e-06	0.026222
26.500	0.43452	62.213	0.016074	68.889	75.873	3.0152	6.0482	15.189	901.24	-0.14238	8.4679e-06	0.10086	0.00088020	5.2637	0.18998	379.81	462.36	17.600	6.9203	17.413	378.14	13.224	1.3809e-06	0.027258
27.000	0.47789	61.305	0.016312	75.931	83.727	3.2825	6.0820	15.987	878.38	-0.046401	8.1571e-06	0.10023	0.00079991	5.8055	0.17225	378.87	461.18	17.262	6.9832	18.357	378.77	12.875	1.4196e-06	0.028367
27.500	0.52420	60.349	0.016570	83.253	91.939	3.5559	6.1175	16.905	854.44	0.058449	7.8534e-06	0.099518	0.00072058	6.3983	0.15629	377.59	459.51	16.922	7.0512	19.471	379.24	12.528	1.4603e-06	0.029562
28.000	0.57359	59.339	0.016852	90.885	100.55	3.8365	6.1552	17.977	829.30	0.17399	7.5551e-06	0.098731	0.00064237	7.0489	0.14187	375.93	457.30	16.577	7.1248	20.804	379.55	12.181	1.5036e-06	0.030863
28.500	0.62616	58.266	0.017163	98.870	109.62	4.1257	6.1961	19.253	802.80	0.30259	7.2606e-06	0.097856	0.00056548	7.7659	0.12877	373.83	454.46	16.226	7.2048	22.427	379.68	11.832	1.5499e-06	0.032294
29.000	0.68205	57.119	0.017507	107.26	119.20	4.4253	6.2415	20.807	774.76	0.44733	6.9677e-06	0.096889	0.00049013	8.5601	0.11682	371.24	450.92	15.864	7.2922	24.445	379.64	11.476	1.5999e-06	0.033892
29.500	0.74139	55.883	0.017894	116.12	129.39	4.7377	6.2931	22.755	744.96	0.61243	6.6743e-06	0.095822	0.00041664	9.4463	0.10586	368.07	446.55	15.489	7.3882	27.021	379.44	11.109	1.6545e-06	0.035708
30.000	0.80432	54.538	0.018336	125.55	140.30	5.0661	6.3535	25.284	713.07	0.80374	6.3773e-06	0.094649	0.00034541	10.445	0.095744	364.18	441.19	15.096	7.4945	30.425	379.07	10.726	1.7150e-06	0.037817
30.500	0.87101	53.053	0.018849	135.69	152.11	5.4155	6.4264	28.732	678.68	1.0298	6.0730e-06	0.093371	0.00027702	11.584	0.086327	359.41	434.60	14.677	7.6132	35.133	378.52	10.319	1.7833e-06	0.040340
31.000	0.94165	51.381	0.019463	146.75	165.08	5.7933	6.5181	33.758	641.21	1.3038	5.7556e-06	0.092009	0.00021230	12.909	0.077463	353.47	426.41	14.223	7.7475	42.069	377.80	9.8735	1.8623e-06	0.043478
31.500	1.0164	49.443	0.020225	159.10	179.66	6.2124	6.6393	41.858	599.77	1.6474	5.4159e-06	0.090660	0.00015252	14.497	0.068979	345.92	416.03	13.716	7.9017	53.308	376.89	9.3710	1.9571e-06	0.047604
32.000	1.0957	47.085	0.021238	173.46	196.73	6.6982	6.8110	57.287	552.88	2.1008	5.0369e-06	0.089697	9.9883e-05	16.495	0.060623	335.88	402.30	13.122	8.0826	74.636	375.78	8.7733	2.0781e-06	0.053552
32.500	1.1797	43.918	0.022769	191.61	218.47	7.3150	7.0859	98.566	497.52	2.7550	4.5769e-06	0.090741	5.8738e-05	19.275	0.051880	321.20	382.40	12.359	8.2996	130.42	374.48	7.9911	2.2517e-06	0.063861
33.000	1.2693	38.079	0.026261	222.36	255.69	8.3842	7.6982	484.58	423.53	3.9731	3.8464e-06	0.10842	4.0191e-05	24.637	0.040589	291.88	343.40	11.042	8.5381	604.72	373.93	6.6334	2.6162e-06	0.099127
